#   1 NUMBER          Running object number
#   2 FLUX_RADIUS     Fraction-of-light radii                         [pixel]
#   3 ALPHA_J2000     Right ascension of barycenter (J2000)           [deg]
#   4 DELTA_J2000     Declination of barycenter (J2000)               [deg]
#   5 XMIN_IMAGE      Minimum x-coordinate among detected pixels      [pixel]
#   6 YMIN_IMAGE      Minimum y-coordinate among detected pixels      [pixel]
#   7 XMAX_IMAGE      Maximum x-coordinate among detected pixels      [pixel]
#   8 YMAX_IMAGE      Maximum y-coordinate among detected pixels      [pixel]
#   9 A_IMAGE         Profile RMS along major axis                    [pixel]
#  10 B_IMAGE         Profile RMS along minor axis                    [pixel]
         1      9.547   0.1592950 +20.0592764         48         44        120        129     8.208     6.412
         2      1.444   0.1745696 +20.0404706         17          5         22          9     1.264     1.087
         3      1.002   0.1549854 +20.0777573         83        139         88        143     1.110     1.004
         4      1.739   0.1697298 +20.0782477         34        140         36        144     1.307     0.554
         5      1.000   0.1791062 +20.0777246          2        139          6        142     0.988     0.836
         6      1.081   0.1465148 +20.0766885        113        136        115        138     0.775     0.738
         7      1.348   0.1506619 +20.0731141         97        122        103        126     1.268     1.031
         8      1.619   0.1663790 +20.0728072         44        121         49        126     1.351     1.203
         9      2.185   0.1451816 +20.0719343        114        116        123        124     1.810     1.594
        10      0.973   0.1706063 +20.0719062         30        118         34        122     1.062     0.954
        11      1.142   0.1761584 +20.0714603         12        117         15        120     0.936     0.827
        12      0.999   0.1503006 +20.0714381        100        117        102        119     0.769     0.664
        13      1.150   0.1589906 +20.0706600         71        115         73        116     0.735     0.454
        14      1.220   0.1793708 +20.0702224          1        112          5        116     1.097     1.060
        15      1.071   0.1394665 +20.0670071        136        100        140        104     1.047     0.970
        16      6.573   0.1524154 +20.0662549         89         94         96        101     2.442     1.142
        17      4.036   0.1540616 +20.0661144         85         98         91        100     1.689     0.739
        18      1.452   0.1567760 +20.0786083         78        143         82        145     1.170     0.750
        19      5.237   0.1656484 +20.0617408         48         81         51         87     1.516     0.956
        20      0.926   0.1480222 +20.0617552        107         82        111         85     0.978     0.806
        21      1.364   0.1685323 +20.0594362         38         73         41         76     0.936     0.860
        22      1.507   0.1687593 +20.0582353         36         66         43         73     1.752     1.092
        23      1.944   0.1726569 +20.0619019         20         76         31         91     2.467     1.671
        24      1.414   0.1457519 +20.0553214        115         58        126         62     1.102     0.934
        25      1.262   0.1740703 +20.0541710         19         55         22         57     0.872     0.751
        26      1.263   0.1377710 +20.0533353        142         52        145         54     1.006     0.763
        27      1.166   0.1748391 +20.0621042         17         83         19         87     1.089     0.747
        28      1.562   0.1422834 +20.0465930        127         28        130         30     0.920     0.630
        29      0.976   0.1412493 +20.0440641        129         18        134         22     1.071     0.953
        30      1.362   0.1763735 +20.0436114         12         17         14         19     0.883     0.530
